Energy(eV):Ch_12+14:Ch12_Run3:Ch14_Run3
0.1	2763.37	788.97	1974.4
0.3	17754.4	5451.4	12303
0.5	54912	17522	37390
0.7	100717	33045	67672
0.9	152354	50664	1.02E+05
1.1	178620	60560	1.18E+05
1.3	173667	59827	1.14E+05
1.5	142720	49018	93702
1.7	101025	34547	66478
1.9	65000	21743	43257
2.1	36909	12853	24056
2.3	18966.8	6430.8	12536
2.5	9144.4	3037.3	6107.1
2.7	4972.7	1295.6	3677.1
2.9	3214.69	621.79	2592.9
3.1	2768.79	391.19	2377.6
3.3	2759.7	322.7	2437
3.5	3001.33	343.43	2657.9
3.7	3257.45	380.55	2876.9
3.9	3790.14	482.14	3308
4.1	4182.7	576.4	3606.3
4.3	4810.02	693.92	4116.1
4.5	5457.08	825.38	4631.7
4.7	6268.57	981.57	5287
4.9	7084.8	1153.4	5931.4
5.1	8081.8	1234.9	6846.9
5.3	8932.1	1448.3	7483.8
5.5	10297.6	1670	8627.6
5.7	10996.1	1843.2	9152.9
5.9	12374.8	2143.8	10231
6.1	13229.8	2267.8	10962
6.3	14403.4	2568.4	11835
6.5	15449.9	2793.9	12656
6.7	16270	3103	13167
6.9	16716.6	3146.6	13570
7.1	17406.5	3376.5	14030
7.3	17806	3481	14325
7.5	18084.7	3692.7	14392
7.7	18396.7	3726.7	14670
7.9	18179.4	3790.4	14389
8.1	17936	3782	14154
8.3	18048	3895	14153
8.5	17450.6	3808.6	13642
8.7	17229.2	3872.2	13357
8.9	16490.3	3690.3	12800
9.1	16070.6	3610.6	12460
9.3	15887.5	3650.5	12237
9.5	15184.9	3539.9	11645
9.7	15151.1	3478.1	11673
9.9	14722.9	3448.9	11274
10.1	14878.6	3529.6	11349
10.3	14354	3391	10963
10.5	14921.3	3515.3	11406
10.7	14342.7	3551.7	10791
10.9	14793.3	3601.3	11192
11.1	14607.9	3653.9	10954
11.3	15232.7	3788.7	11444
11.5	15365.1	3825.1	11540
11.7	16080.8	4070.8	12010
11.9	16055.7	4122.7	11933
12.1	16721.4	4376.4	12345
12.3	16744.5	4311.5	12433
12.5	17075.1	4375.1	12700
12.7	17197.6	4535.6	12662
12.9	17667.8	4773.8	12894
13.1	17562.9	4658.9	12904
13.3	17805.6	4863.6	12942
13.5	17822.6	4697.6	13125
13.7	17844	4936	12908
13.9	17790	4740	13050
14.1	17932.8	4991.8	12941
14.3	17952.4	4926.4	13026
14.5	17953.8	5073.8	12880
14.7	17997.8	4957.8	13040
14.9	17847.8	5044.8	12803
15.1	17671.3	5034.3	12637
15.3	17607.3	5022.3	12585
15.5	17491.8	4931.8	12560
15.7	17379.6	4974.6	12405
15.9	17424.2	4921.2	12503
16.1	17067.1	4975.1	12092
16.3	17581	4974	12607
16.5	16773.7	4980.7	11793
16.7	17374.3	4964.3	12410
16.9	16839.8	4917.8	11922
17.1	17037.9	4798.9	12239
17.3	16701.7	4877.7	11824
17.5	16756.8	4896.8	11860
17.7	16506.4	4862.4	11644
17.9	16533.3	4762.3	11771
18.1	16240.2	4722.2	11518
18.3	16444.6	4916.6	11528
18.5	16195.9	4784.9	11411
18.7	16257.4	4928.4	11329
18.9	16132.6	4781.6	11351
19.1	16356	4900	11456
19.3	16001	4743	11258
19.5	16186.1	4809.1	11377
19.7	15931.5	4761.5	11170
19.9	15934.3	4778.3	11156
20.1	15993.6	4725.6	11268
20.3	15864.7	4769.7	11095
20.5	15923.1	4841.1	11082
20.7	15595.3	4714.3	10881
20.9	15654.3	4622.3	11032
21.1	15773.4	4802.4	10971
21.3	15488.5	4641.5	10847
21.5	15416.3	4803.3	10613
21.7	15209.8	4679.8	10530
21.9	15471.2	4747.2	10724
22.1	15310.5	4664.5	10646
22.3	15109.4	4598.4	10511
22.5	15177.3	4666.3	10511
22.7	14998.3	4581.3	10417
22.9	15107.6	4589.6	10518
23.1	15279.9	4734.9	10545
23.3	14796.7	4570.7	10226
23.5	14857	4628	10229
23.7	15001.4	4624.4	10377
23.9	14973.7	4614.7	10359
24.1	14815.1	4565.1	10250
24.3	14761	4381	10380
24.5	14849.4	4561.4	10288
24.7	14766.4	4536.4	10230
24.9	14839.3	4570.3	10269
25.1	14709.5	4424.5	10285
25.3	14801.1	4531.1	10270
25.5	14957.8	4524.8	10433
25.7	14924.6	4537.6	10387
25.9	14952.3	4522.3	10430
26.1	14655.1	4484.1	10171
26.3	14914.7	4527.7	10387
26.5	14864.4	4653.4	10211
26.7	14925.4	4649.4	10276
26.9	14777.2	4602.2	10175
27.1	15137.5	4603.5	10534
27.3	14916.6	4475.6	10441
27.5	14930.3	4688.3	10242
27.7	14774.9	4620.9	10154
27.9	14773	4505	10268
28.1	14760.1	4571.1	10189
28.3	14904.9	4658.9	10246
28.5	14843.2	4595.2	10248
28.7	14975.9	4619.9	10356
28.9	14989.2	4647.2	10342
29.1	14929.1	4566.1	10363
29.3	15066	4683	10383
29.5	15107.7	4561.7	10546
29.7	14949.7	4622.7	10327
29.9	14938.1	4493.1	10445
30.1	14946.6	4573.6	10373
30.3	14984.6	4472.6	10512
30.5	15086.9	4626.9	10460
30.7	14968.4	4489.4	10479
30.9	14813	4459	10354
31.1	15094.9	4579.9	10515
31.3	15056.3	4459.3	10597
31.5	14746.9	4445.9	10301
31.7	14771.3	4269.3	10502
31.9	14792	4470	10322
32.1	14876.4	4435.4	10441
32.3	14723.8	4449.8	10274
32.5	14708.4	4382.4	10326
32.7	14515.8	4335.8	10180
32.9	14640.7	4364.7	10276
33.1	14457.6	4347.6	10110
33.3	14439.2	4381.2	10058
33.5	14353.5	4259.5	10094
33.7	14394.4	4204.4	10190
33.9	14328.9	4271.9	10057
34.1	14056.1	4176.8	9879.3
34.3	14240.9	4299.7	9941.2
34.5	14174.5	4186.9	9987.6
34.7	13755.7	4098.8	9656.9
34.9	13691.9	4139.5	9552.4
35.1	13677.6	4023.6	9654
35.3	13589.4	3978.3	9611.1
35.5	13380.4	3957.2	9423.2
35.7	13421.3	4059.1	9362.2
35.9	13129.7	3933.4	9196.3
36.1	13129.3	3940.2	9189.1
36.3	12861.8	3779.2	9082.6
36.5	12950.2	3916.9	9033.3
36.7	12676.1	3803.7	8872.4
36.9	12646.8	3796.5	8850.3
37.1	12509.7	3660.3	8849.4
37.3	12411	3750.9	8660.1
37.5	12088.7	3577.2	8511.5
37.7	11872.9	3618.9	8254
37.9	12021.4	3536.5	8484.9
38.1	11864	3641.1	8222.9
38.3	11665.8	3473.2	8192.6
38.5	11487.2	3385.8	8101.4
38.7	11386	3421.4	7964.6
38.9	11120.2	3391.3	7728.9
39.1	11242.8	3435.8	7807
39.3	11032.9	3366.6	7666.3
39.5	10961.5	3297.6	7663.9
39.7	10675.5	3219.2	7456.3
39.9	10659.3	3203.3	7456
40.1	10349.1	3172.4	7176.7
40.3	10481.1	3289.9	7191.2
40.5	10270.6	3227.2	7043.4
40.7	10301.2	3249.4	7051.8
40.9	10042.8	3093.3	6949.5
41.1	9850.5	3108.8	6741.7
41.3	9608.4	2973.1	6635.3
41.5	9607.3	3002.9	6604.4
41.7	9487	2918.9	6568.1
41.9	9412.5	2936.3	6476.2
42.1	9231	2917.2	6313.8
42.3	9127.3	2877.5	6249.8
42.5	8934.8	2774.1	6160.7
42.7	9015.4	2755.2	6260.2
42.9	9081.6	2824.4	6257.2
43.1	8756.2	2710.1	6046.1
43.3	8684	2656.5	6027.5
43.5	8550.2	2682	5868.2
43.7	8637.7	2692.1	5945.6
43.9	8445.4	2718.2	5727.2
44.1	8498.9	2650.1	5848.8
44.3	8267.9	2569	5698.9
44.5	8270.7	2548.1	5722.6
44.7	7955.2	2501.5	5453.7
44.9	8121.9	2486.9	5635
45.1	7984.6	2565.1	5419.5
45.3	7978	2507.1	5470.9
45.5	7812.9	2408.6	5404.3
45.7	7878.9	2484.9	5394
45.9	7755.8	2373.1	5382.7
46.1	7919.5	2427	5492.5
46.3	7749.1	2388.6	5360.5
46.5	7717.5	2455.7	5261.8
46.7	7450.7	2379.3	5071.4
46.9	7701.1	2430.4	5270.7
47.1	7737.1	2465.1	5272
47.3	7736	2433.1	5302.9
47.5	7527.1	2375.6	5151.5
47.7	7737.9	2367.5	5370.4
47.9	7556.3	2320.2	5236.1
48.1	7682.6	2434.1	5248.5
48.3	7726	2398.6	5327.4
48.5	7727.1	2509.6	5217.5
48.7	7732	2407.6	5324.4
48.9	7833.1	2568.5	5264.6
49.1	7806.3	2523.6	5282.7
49.3	8030.9	2536.8	5494.1
49.5	8153.2	2597.1	5556.1
49.7	8323	2684.9	5638.1
49.9	8525.7	2742.7	5783
50.1	8616.5	2787.7	5828.8
50.3	9071.3	2868.3	6203
50.5	9198.3	3032.1	6166.2
50.7	9561.2	3103.9	6457.3
50.9	9998.8	3275.2	6723.6
51.1	10309.7	3334	6975.7
51.3	10800.4	3447.9	7352.5
51.5	11502.1	3718.3	7783.8
51.7	12024.6	3918.7	8105.9
51.9	13036.8	4289.7	8747.1
52.1	14051.7	4483.2	9568.5
52.3	14988.6	4739.6	10249
52.5	16018.3	5131.3	10887
52.7	17627.5	5511.5	12116
52.9	18989.3	5951.3	13038
53.1	20693	6446	14247
53.3	22133	6930	15203
53.5	24333.9	7544.9	16789
53.7	26169	7918	18251
53.9	28873.3	8795.3	20078
54.1	31442.4	9457.4	21985
54.3	34267	10250	24017
54.5	36956	10888	26068
54.7	40138	12066	28072
54.9	43132	12594	30538
55.1	46827	13701	33126
55.3	50505	14479	36026
55.5	54330	15726	38604
55.7	58062	16478	41584
55.9	61862	17736	44126
56.1	65498	18714	46784
56.3	70031	19815	50216
56.5	74258	20837	53421
56.7	77679	21902	55777
56.9	82123	22476	59647
57.1	85736	24029	61707
57.3	90294	24427	65867
57.5	92746	25559	67187
57.7	97609	26132	71477
57.9	100280	27347	72933
58.1	105014	28183	76831
58.3	107685	29072	78613
58.5	111857	30058	81799
58.7	114774	30824	83950
58.9	117545	31120	86425
59.1	119319	31930	87389
59.3	122946	32863	90083
59.5	124579	32893	91686
59.7	126671	33643	93028
59.9	128324	33435	94889
60.1	129788	34158	95630
60.3	129538	33904	95634
60.5	131660	34525	97135
60.7	131285	34131	97154
60.9	131627	34318	97309
61.1	130028	33780	96248
61.3	129471	33885	95586
61.5	128303	33238	95065
61.7	125858	33080	92778
61.9	124713	31950	92763
62.1	121686	31549	90137
62.3	119868	30693	89175
62.5	116780	30508	86272
62.7	115433	29084	86349
62.9	112158	29015	83143
63.1	109268	27503	81765
63.3	105549	27087	78462
63.5	102859	26239	76620
63.7	98793	25315	73478
63.9	96017	24555	71462
64.1	92032	23511	68521
64.3	88830	22697	66133
64.5	85799	22026	63773
64.7	83064	21328	61736
64.9	79636	20250	59386
65.1	76971	19343	57628
65.3	74402	18836	55566
65.5	71552	18185	53367
65.7	68684	17368	51316
65.9	66815	16806	50009
66.1	64117	16303	47814
66.3	62576	15905	46671
66.5	59540	15229	44311
66.7	58391	15047	43344
66.9	56468	14418	42050
67.1	54684	14131	40553
67.3	53716	13733	39983
67.5	52356	13613	38743
67.7	51297	13181	38116
67.9	50058	13004	37054
68.1	49325	12526	36799
68.3	48439	12631	35808
68.5	47707	12213	35494
68.7	46823	12441	34382
68.9	46214	12063	34151
69.1	46276	12303	33973
69.3	45636	12010	33626
69.5	45624	12020	33604
69.7	45087	11890	33197
69.9	45414	12123	33291
70.1	45185	12074	33111
70.3	45855	12210	33645
70.5	45751	12173	33578
70.7	46008	12166	33842
70.9	46748	12554	34194
71.1	46785	12608	34177
71.3	47283	12795	34488
71.5	47873	13180	34693
71.7	48505	13388	35117
71.9	49061	13444	35617
72.1	49781	13709	36072
72.3	50767	13872	36895
72.5	51850	14193	37657
72.7	52726	14422	38304
72.9	53903	14925	38978
73.1	55095	15141	39954
73.3	55878	15652	40226
73.5	57450	15811	41639
73.7	59231	16821	42410
73.9	60014	16619	43395
74.1	61708	17332	44376
74.3	62501	17439	45062
74.5	64358	17899	46459
74.7	65334	18283	47051
74.9	67357	18802	48555
75.1	68517	19060	49457
75.3	71031	20154	50877
75.5	71857	19998	51859
75.7	74157	20883	53274
75.9	75704	21047	54657
76.1	77871	21802	56069
76.3	79815	21879	57936
76.5	80719	22259	58460
76.7	82688	22842	59846
76.9	85248	23676	61572
77.1	86586	23684	62902
77.3	88724	24262	64462
77.5	90509	24757	65752
77.7	93022	25314	67708
77.9	94832	25523	69309
78.1	96689	25859	70830
78.3	98539	26694	71845
78.5	100688	27110	73578
78.7	102866	27471	75395
78.9	104179	27841	76338
79.1	106528	28658	77870
79.3	107359	28481	78878
79.5	109788	29380	80408
79.7	111374	29216	82158
79.9	113729	30280	83449
80.1	114692	30066	84626
80.3	117281	31108	86173
80.5	118168	30804	87364
80.7	121196	31842	89354
80.9	121142	31478	89664
81.1	123632	32190	91442
81.3	123834	31699	92135
81.5	126369	32710	93659
81.7	125887	32468	93419
81.9	127806	33279	94527
82.1	127808	32618	95190
82.3	130021	33545	96476
82.5	129087	32995	96092
82.7	131404	33753	97651
82.9	130909	33123	97786
83.1	131973	33731	98242
83.3	131165	33534	97631
83.5	131805	33749	98056
83.7	131311	33467	97844
83.9	132080	33652	98428
84.1	130685	33493	97192
84.3	130854	33034	97820
84.5	129008	32623	96385
84.7	129286	32576	96710
84.9	128800	32815	95985
85.1	127839	32337	95502
85.3	126976	32216	94760
85.5	125863	31879	93984
85.7	125028	32041	92987
85.9	123916	31226	92690
86.1	122969	31014	91955
86.3	121018	30525	90493
86.5	120763	30645	90118
86.7	118023	29760	88263
86.9	117239	29550	87689
87.1	114321	28562	85759
87.3	114038	29125	84913
87.5	111878	28333	83545
87.7	111271	28536	82735
87.9	108379	27125	81254
88.1	107607	27544	80063
88.3	105735	26570	79165
88.5	104523	26473	78050
88.7	102878	25915	76963
88.9	100946	25538	75408
89.1	99260	24773	74487
89.3	97723	24764	72959
89.5	95157	23974	71183
89.7	94421	23979	70442
89.9	92437	23386	69051
90.1	91521	23142	68379
90.3	90113	22697	67416
90.5	89160	22434	66726
90.7	86375	21816	64559
90.9	85943	21799	64144
91.1	84575	21177	63398
91.3	83565	20992	62573
91.5	81521	20541	60980
91.7	80479	20414	60065
91.9	78461	19749	58712
92.1	78325	19741	58584
92.3	76739	19591	57148
92.5	75722	19011	56711
92.7	74519	18856	55663
92.9	73252	18575	54677
93.1	72768	18477	54291
93.3	71219	18131	53088
93.5	70905	18305	52600
93.7	69932	17911	52021
93.9	69324	17808	51516
94.1	68464	17661	50803
94.3	67957	17665	50292
94.5	67414	17731	49683
94.7	66806	17513	49293
94.9	66143	17334	48809
95.1	66269	17647	48622
95.3	65795	17607	48188
95.5	66024	17849	48175
95.7	65615	17618	47997
95.9	66103	17673	48430
96.1	66762	18160	48602
96.3	67346	18522	48824
96.5	66771	18463	48308
96.7	68058	18732	49326
96.9	68543	19077	49466
97.1	69717	19704	50013
97.3	70277	19784	50493
97.5	71799	20403	51396
97.7	73316	20809	52507
97.9	75387	21527	53860
98.1	77267	22269	54998
98.3	79734	23131	56603
98.5	82447	23683	58764
98.7	85426	24864	60562
98.9	87958	25591	62367
99.1	91569	26558	65011
99.3	94747	27106	67641
99.5	99181	28539	70642
99.7	103342	29707	73635
99.9	108290	31352	76938
100.1	113288	32494	80794
100.3	118271	34316	83955
100.5	124783	35977	88806
100.7	130972	37564	93408
100.9	138572	39621	98951
101.1	145585	41235	1.04E+05
101.3	154360	44010	1.10E+05
101.5	161246	45476	1.16E+05
101.7	170477	48237	1.22E+05
101.9	179757	50907	1.29E+05
102.1	190075	53535	1.37E+05
102.3	200983	56793	1.44E+05
102.5	213257	59917	1.53E+05
102.7	225662	62812	1.63E+05
102.9	239770	66420	1.73E+05
103.1	254810	70790	1.84E+05
103.3	272179	75169	1.97E+05
103.5	289375	80385	2.09E+05
103.7	310566	85986	2.25E+05
103.9	331060	92160	2.39E+05
104.1	357044	98154	2.59E+05
104.3	381070	1.05E+05	2.76E+05
104.5	412150	1.14E+05	2.99E+05
104.7	440760	1.21E+05	3.20E+05
104.9	478910	1.32E+05	3.47E+05
105.1	515320	1.41E+05	3.74E+05
105.3	558050	1.53E+05	4.05E+05
105.5	603540	1.65E+05	4.39E+05
105.7	652680	1.77E+05	4.76E+05
105.9	706230	1.91E+05	5.15E+05
106.1	757520	2.05E+05	5.53E+05
106.3	815640	2.20E+05	5.95E+05
106.5	874300	2.36E+05	6.38E+05
106.7	936670	2.53E+05	6.84E+05
106.9	999450	2.69E+05	7.31E+05
107.1	1057910	2.84E+05	7.74E+05
107.3	1125180	3.01E+05	8.24E+05
107.5	1185370	3.17E+05	8.68E+05
107.7	1255980	3.37E+05	9.19E+05
107.9	1309880	3.48E+05	9.62E+05
108.1	1370150	3.65E+05	1.01E+06
108.3	1429280	3.79E+05	1.05E+06
108.5	1489160	3.97E+05	1.09E+06
108.7	1540380	4.07E+05	1.13E+06
108.9	1582420	4.19E+05	1.16E+06
109.1	1636510	4.28E+05	1.21E+06
109.3	1680120	4.43E+05	1.24E+06
109.5	1725910	4.51E+05	1.28E+06
109.7	1764260	4.61E+05	1.30E+06
109.9	1803310	4.67E+05	1.34E+06
110.1	1836370	4.79E+05	1.36E+06
110.3	1867800	4.85E+05	1.38E+06
110.5	1907810	4.96E+05	1.41E+06
110.7	1939410	5.00E+05	1.44E+06
110.9	1962520	5.08E+05	1.45E+06
111.1	1983000	5.12E+05	1.47E+06
111.3	2000850	5.18E+05	1.48E+06
111.5	2005120	5.16E+05	1.49E+06
111.7	2008610	5.18E+05	1.49E+06
111.9	2006430	5.15E+05	1.49E+06
112.1	1990550	5.18E+05	1.47E+06
112.3	1970670	5.06E+05	1.46E+06
112.5	1939480	5.00E+05	1.44E+06
112.7	1905610	4.89E+05	1.42E+06
112.9	1856520	4.78E+05	1.38E+06
113.1	1804760	4.65E+05	1.34E+06
113.3	1739850	4.48E+05	1.29E+06
113.5	1668190	4.30E+05	1.24E+06
113.7	1591010	4.10E+05	1.18E+06
113.9	1515410	3.92E+05	1.12E+06
114.1	1426220	3.69E+05	1.06E+06
114.3	1337420	3.49E+05	9.89E+05
114.5	1238390	3.22E+05	9.17E+05
114.7	1152660	3.03E+05	8.50E+05
114.9	1058710	2.76E+05	7.82E+05
115.1	976190	2.56E+05	7.20E+05
115.3	881930	2.31E+05	6.51E+05
115.5	805040	2.12E+05	5.93E+05
115.7	719040	1.89E+05	5.31E+05
115.9	649930	1.71E+05	4.79E+05
116.1	577330	1.51E+05	4.26E+05
116.3	517300	1.37E+05	3.81E+05
116.5	452840	1.20E+05	3.33E+05
116.7	403540	1.07E+05	2.97E+05
116.9	351882	92282	2.60E+05
117.1	310297	82237	2.28E+05
117.3	269322	71272	1.98E+05
117.5	235838	63008	1.73E+05
117.7	204934	53844	1.51E+05
117.9	179246	47706	1.32E+05
118.1	156384	41374	1.15E+05
118.3	136715	36555	1.00E+05
118.5	119004	31652	87352
118.7	103668	27882	75786
118.9	90669	24176	66493
119.1	80235	21476	58759
119.3	70629	18866	51763
119.5	62507	16787	45720
119.7	55735	14881	40854
119.9	49441	13307	36134
120.1	44982	12110	32872
120.3	40416	10967	29449
120.5	37263.2	9993.2	27270
120.7	34090.8	9219.8	24871
120.9	32144.6	8731.6	23413
121.1	29789	7983	21806
121.3	27846.9	7624.9	20222
121.5	26160.9	7263.9	18897
121.7	25153.4	6924.4	18229
121.9	23661.1	6492.1	17169
122.1	22658.2	6148.2	16510
122.3	21752.1	5892.1	15860
122.5	20999.6	5743.6	15256
122.7	20396.7	5591.7	14805
122.9	19993.6	5512.6	14481
123.1	19213.2	5211.2	14002
123.3	18877.4	5103.4	13774
123.5	18522.5	4988.5	13534
123.7	18271.7	5121.7	13150
123.9	17665.9	4803.9	12862
124.1	17463.2	4648.2	12815
124.3	16989.9	4501.9	12488
124.5	16751.3	4514.3	12237
124.7	16379.7	4368.7	12011
124.9	16299.2	4432.2	11867
125.1	16059.9	4336.9	11723
125.3	15610.6	4311.6	11299
125.5	15370.9	4090.9	11280
125.7	15116.2	4117.2	10999
125.9	14911	3905	11006
126.1	14596.8	3942.8	10654
126.3	14575.8	3921.8	10654
126.5	14368.7	3845.7	10523
126.7	14163.4	3716.4	10447
126.9	13882.6	3754.6	10128
127.1	13850	3638	10212
127.3	13445.9	3706.4	9739.5
127.5	13207.5	3482.6	9724.9
127.7	12749	3418.8	9330.2
127.9	12750.2	3482.2	9268
128.1	12446.8	3530.6	8916.2
128.3	12315.9	3354.2	8961.7
128.5	12099.8	3259.2	8840.6
128.7	11604	3105.5	8498.5
128.9	11416.7	3030.3	8386.4
129.1	11298.5	3038.5	8260
129.3	11186.7	3033.1	8153.6
129.5	11077.8	2989.5	8088.3
129.7	10689	2826.4	7862.6
129.9	10423.3	2810.9	7612.4
130.1	10073.2	2702.5	7370.7
130.3	10081.9	2709.3	7372.6
130.5	9841.9	2585.7	7256.2
130.7	9605.9	2575.8	7030.1
130.9	9475.3	2537.3	6938
131.1	9304.6	2485.6	6819
131.3	9266.9	2465.6	6801.3
131.5	8971.7	2451.5	6520.2
131.7	8747.6	2352.1	6395.5
131.9	8582.6	2400.9	6181.7
132.1	8198.7	2150	6048.7
132.3	8133.4	2181	5952.4
132.5	8053.4	2078.1	5975.3
132.7	7775.7	2135.5	5640.2
132.9	7666.9	2024.4	5642.5
133.1	7450.7	2055.6	5395.1
133.3	7374	1973.8	5400.2
133.5	7049.6	1987.4	5062.2
133.7	7128	1856.3	5271.7
133.9	7055.2	1944.5	5110.7
134.1	7106.2	1964.6	5141.6
134.3	6970.5	1896.3	5074.2
134.5	6685.7	1792.3	4893.4
134.7	6497.8	1790.4	4707.4
134.9	6546.5	1713.3	4833.2
135.1	6359.5	1723.6	4635.9
135.3	6146.1	1594.5	4551.6
135.5	6057.4	1639.8	4417.6
135.7	6084.9	1597.7	4487.2
135.9	5848.4	1597.6	4250.8
136.1	5890	1568.8	4321.2
136.3	5663.5	1474.8	4188.7
136.5	5607.2	1502.7	4104.5
136.7	5428.7	1471.7	3957
136.9	5451.1	1478.4	3972.7
137.1	5345.1	1412.8	3932.3
137.3	5166.5	1444.8	3721.7
137.5	5240.2	1403.6	3836.6
137.7	5168.1	1445	3723.1
137.9	5098.2	1373.3	3724.9
138.1	5011.5	1388.1	3623.4
138.3	4986.8	1337.9	3648.9
138.5	4807.8	1381.4	3426.4
138.7	4863.7	1319.3	3544.4
138.9	4679.5	1289.3	3390.2
139.1	4747.9	1306.6	3441.3
139.3	4696.1	1292.5	3403.6
139.5	4411.7	1180.5	3231.2
139.7	4477.8	1199.6	3278.2
139.9	4418.3	1184.7	3233.6
140.1	4422.6	1193.2	3229.4
140.3	4314.7	1162.6	3152.1
140.5	4250.9	1143.8	3107.1
140.7	4252.5	1206.7	3045.8
140.9	4274.8	1220.6	3054.2
141.1	4101.8	1133.6	2968.2
141.3	4028.6	1130.7	2897.9
141.5	4001.6	1121.5	2880.1
141.7	3917.5	1059.3	2858.2
141.9	4024.3	1076.9	2947.4
142.1	3994.4	1107.5	2886.9
142.3	3882.3	1095.4	2786.9
142.5	3830	1049.6	2780.4
142.7	3842.2	1098.5	2743.7
142.9	3710.4	1001	2709.4
143.1	3555.35	975.35	2580
143.3	3589.42	981.42	2608
143.5	3639.3	1003.7	2635.6
143.7	3700.43	985.73	2714.7
143.9	3439.65	971.05	2468.6
144.1	3422.65	940.35	2482.3
144.3	3474.25	950.05	2524.2
144.5	3495.93	942.73	2553.2
144.7	3429.19	974.99	2454.2
144.9	3324.78	942.28	2382.5
145.1	3421.75	933.65	2488.1
145.3	3301.76	884.16	2417.6
145.5	3237.58	897.58	2340
145.7	3195.34	869.54	2325.8
145.9	3178.98	894.28	2284.7
146.1	3179.6	842.6	2337
146.3	3075.28	835.98	2239.3
146.5	3044.73	860.83	2183.9
146.7	3048.85	832.55	2216.3
146.9	3086.56	871.46	2215.1
147.1	2953.26	818.86	2134.4
147.3	3003.18	843.88	2159.3
147.5	2982.08	876.78	2105.3
147.7	2983.08	806.68	2176.4
147.9	2867.65	791.45	2076.2
148.1	2859.03	820.63	2038.4
148.3	2879.04	820.24	2058.8
148.5	2828.16	770.26	2057.9
148.7	2835.58	800.78	2034.8
148.9	2743.31	750.21	1993.1
149.1	2777.12	760.92	2016.2
149.3	2721.19	766.59	1954.6
